SpectraSuite数据文件
++++++++++++++++++++++++++++++++++++
数据: Mon Mar 06 16:04:38 CST 2023
用户: Administrator
暗光谱: 是
参考光谱: 是
光谱数量: 1
光谱仪: USB2+U11342
积分时间（微秒）: 3000000 (USB2+U11342)
平均次数: 1 (USB2+U11342)
平滑度: 0 (USB2+U11342)
去除暗噪声: 否 (USB2+U11342)
使用脉冲信号/灯: 否 (USB2+U11342)
电子暗噪声校正: 否 (USB2+U11342)
杂散光校正: 否 (USB2+U11342)
光谱像素值: 2048
>>>>>Begin Processed Spectral Data<<<<<
190.79	200.000
191.17	200.000
191.55	200.000
191.94	-20.833
192.32	-1750.000
192.70	138.889
193.08	137.500
193.47	172.222
193.85	-19.048
194.23	39.286
194.61	34.146
194.99	291.667
195.38	24.390
195.76	300.000
196.14	79.412
196.52	-113.333
196.90	19.048
197.29	148.276
197.67	80.000
198.05	400.000
198.43	0.000
198.81	-220.000
199.19	62.500
199.58	50.000
199.96	23.810
200.34	88.889
200.72	-700.000
201.10	41.935
201.48	176.923
201.86	160.000
202.25	41.667
202.63	60.417
203.01	127.500
203.39	91.071
203.77	620.000
204.15	-14.286
204.53	139.130
204.91	2600.000
205.30	192.857
205.68	92.308
206.06	87.879
206.44	77.551
206.82	146.154
207.20	105.556
207.58	650.000
207.96	147.619
208.34	3.636
208.73	264.286
209.11	131.579
209.49	55.556
209.87	57.143
210.25	-275.000
210.63	100.000
211.01	-38.776
211.39	206.250
211.77	41.176
212.15	-15.217
212.53	-100.000
212.91	-1100.000
213.29	346.154
213.67	85.075
214.05	26.230
214.43	200.000
214.82	114.286
215.20	221.429
215.58	314.286
215.96	16.667
216.34	25.714
216.72	11.111
217.10	77.778
217.48	125.000
217.86	123.529
218.24	187.879
218.62	42.857
219.00	110.169
219.38	321.429
219.76	-26.316
220.14	-79.167
220.52	60.377
220.90	314.286
221.28	300.000
221.66	-3100.000
222.04	82.143
222.42	261.538
222.80	750.000
223.18	107.692
223.56	145.000
223.93	-91.667
224.31	85.000
224.69	172.727
225.07	-18.000
225.45	241.935
225.83	90.909
226.21	155.556
226.59	67.273
226.97	110.000
227.35	70.213
227.73	105.000
228.11	-400.000
228.49	35.484
228.87	-42.857
229.25	129.630
229.63	200.000
230.00	37.500
230.38	180.952
230.76	28.571
231.14	-125.000
231.52	95.000
231.90	33.962
232.28	-1.887
232.66	227.273
233.04	7.692
233.42	125.000
233.79	23.913
234.17	32.609
234.55	-8.333
234.93	10.638
235.31	225.000
235.69	400.000
236.07	102.632
236.44	106.667
236.82	90.323
237.20	100.000
237.58	200.000
237.96	214.815
238.34	134.615
238.72	94.444
239.09	100.000
239.47	-66.667
239.85	91.667
240.23	-333.333
240.61	136.364
240.98	-290.909
241.36	-75.000
241.74	37.500
242.12	152.632
242.50	45.312
242.88	113.043
243.25	102.703
243.63	17.241
244.01	116.000
244.39	-400.000
244.76	563.636
245.14	-5.263
245.52	214.286
245.90	106.250
246.28	300.000
246.65	188.889
247.03	21.622
247.41	412.500
247.79	-225.000
248.16	-188.889
248.54	7.143
248.92	54.348
249.30	181.081
249.67	95.000
250.05	100.000
250.43	211.765
250.81	500.000
251.18	-900.000
251.56	-7.500
251.94	0.000
252.32	173.810
252.69	186.957
253.07	87.500
253.45	212.000
253.82	-76.923
254.20	73.077
254.58	261.290
254.95	128.947
255.33	76.923
255.71	36.364
256.09	62.500
256.46	18.182
256.84	600.000
257.22	22.667
257.59	-133.333
257.97	566.667
258.35	133.333
258.72	192.857
259.10	37.500
259.48	900.000
259.85	105.000
260.23	-16.667
260.61	655.556
260.98	91.429
261.36	90.909
261.73	115.385
262.11	178.947
262.49	70.588
262.86	181.481
263.24	-5.263
263.62	43.210
263.99	41.772
264.37	83.929
264.74	400.000
265.12	70.270
265.50	43.590
265.87	110.526
266.25	120.833
266.62	145.455
267.00	115.000
267.38	95.000
267.75	57.812
268.13	-60.417
268.50	92.683
268.88	63.636
269.26	-37.500
269.63	17.949
270.01	150.000
270.38	82.759
270.76	85.507
271.13	117.241
271.51	122.581
271.88	-18.519
272.26	73.077
272.64	111.111
273.01	-35.294
273.39	101.961
273.76	84.091
274.14	-60.870
274.51	273.913
274.89	59.701
275.26	-14.286
275.64	123.077
276.01	76.923
276.39	157.143
276.76	66.667
277.14	10.909
277.51	-5.882
277.89	-150.000
278.26	13.333
278.64	109.524
279.01	25.641
279.39	-68.182
279.76	-436.364
280.14	127.778
280.51	106.494
280.89	30.556
281.26	86.275
281.64	44.444
282.01	-76.190
282.38	43.820
282.76	2.326
283.13	73.437
283.51	2.500
283.88	176.923
284.26	-150.000
284.63	81.250
285.01	64.407
285.38	118.519
285.75	90.909
286.13	112.245
286.50	9.091
286.88	97.333
287.25	92.063
287.63	58.182
288.00	69.697
288.37	77.586
288.75	71.429
289.12	59.722
289.50	18.182
289.87	72.917
290.24	100.000
290.62	4.651
290.99	45.763
291.36	12.069
291.74	72.973
292.11	54.762
292.49	35.227
292.86	43.396
293.23	-8.108
293.61	44.615
293.98	64.286
294.35	41.270
294.73	11.864
295.10	81.818
295.47	32.759
295.85	81.034
296.22	3.750
296.59	56.000
296.97	-1100.000
297.34	19.608
297.71	39.474
298.09	-31.579
298.46	45.946
298.83	80.328
299.20	40.741
299.58	46.067
299.95	66.038
300.32	132.143
300.70	133.333
301.07	685.714
301.44	50.495
301.82	47.872
302.19	69.444
302.56	-5.263
302.93	79.310
303.31	36.364
303.68	33.929
304.05	49.533
304.42	61.250
304.80	42.500
305.17	52.727
305.54	93.846
305.91	41.905
306.29	77.941
306.66	59.483
307.03	41.803
307.40	57.823
307.78	48.544
308.15	71.084
308.52	53.226
308.89	76.596
309.26	63.551
309.64	58.929
310.01	73.529
310.38	64.948
310.75	91.045
311.12	57.627
311.50	66.871
311.87	71.429
312.24	55.056
312.61	47.222
312.98	85.821
313.35	78.912
313.73	35.882
314.10	63.731
314.47	78.395
314.84	83.108
315.21	79.310
315.58	68.649
315.96	72.778
316.33	71.676
316.70	54.592
317.07	80.120
317.44	62.963
317.81	84.390
318.18	38.816
318.56	50.538
318.93	94.975
319.30	77.073
319.67	69.118
320.04	61.929
320.41	76.136
320.78	76.289
321.15	83.978
321.52	68.443
321.90	87.324
322.27	67.662
322.64	83.036
323.01	73.305
323.38	81.000
323.75	63.386
324.12	65.455
324.49	72.381
324.86	83.200
325.23	78.067
325.60	69.919
325.97	80.833
326.34	67.018
326.71	72.549
327.08	73.810
327.45	82.573
327.83	68.880
328.20	65.306
328.57	82.072
328.94	94.521
329.31	76.429
329.68	68.772
330.05	81.515
330.42	66.906
330.79	77.181
331.16	64.955
331.53	75.484
331.90	66.013
332.27	86.134
332.64	82.831
333.01	80.872
333.38	72.381
333.75	70.034
334.12	68.652
334.49	68.805
334.86	71.629
335.23	84.818
335.59	69.156
335.96	74.063
336.33	70.509
336.70	74.593
337.07	79.781
337.44	73.316
337.81	59.829
338.18	87.640
338.55	74.841
338.92	77.246
339.29	72.432
339.66	73.615
340.03	82.306
340.40	73.210
340.77	70.500
341.14	74.731
341.50	80.286
341.87	75.332
342.24	91.327
342.61	76.905
342.98	73.095
343.35	83.023
343.72	80.523
344.09	69.492
344.46	82.781
344.82	78.261
345.19	75.726
345.56	67.168
345.93	82.035
346.30	79.009
346.67	81.731
347.04	71.368
347.40	77.928
347.77	71.674
348.14	72.881
348.51	77.624
348.88	76.724
349.25	72.152
349.61	80.813
349.98	79.521
350.35	70.084
350.72	89.303
351.09	89.871
351.46	68.307
351.82	76.151
352.19	77.756
352.56	79.381
352.93	80.863
353.30	72.222
353.66	81.015
354.03	78.927
354.40	67.552
354.77	71.078
355.13	71.577
355.50	69.091
355.87	71.454
356.24	73.642
356.61	74.270
356.97	82.732
357.34	74.775
357.71	75.887
358.08	67.010
358.44	81.508
358.81	76.351
359.18	83.865
359.55	75.338
359.91	73.250
360.28	79.965
360.65	73.378
361.01	74.410
361.38	83.697
361.75	75.292
362.12	76.045
362.48	71.154
362.85	68.770
363.22	87.978
363.58	71.336
363.95	70.159
364.32	73.191
364.68	70.128
365.05	77.099
365.42	76.045
365.78	80.064
366.15	73.440
366.52	70.788
366.88	72.727
367.25	76.126
367.62	75.926
367.98	77.204
368.35	71.839
368.72	79.434
369.08	67.394
369.45	71.768
369.82	76.700
370.18	72.846
370.55	72.297
370.91	72.557
371.28	73.207
371.65	64.229
372.01	71.812
372.38	75.744
372.74	69.101
373.11	70.391
373.48	71.186
373.84	71.833
374.21	65.971
374.57	68.872
374.94	73.300
375.31	66.904
375.67	68.490
376.04	75.584
376.40	67.352
376.77	70.618
377.13	65.568
377.50	73.141
377.86	69.988
378.23	62.429
378.60	62.458
378.96	67.426
379.33	71.829
379.69	64.678
380.06	65.721
380.42	69.462
380.79	66.392
381.15	65.304
381.52	64.084
381.88	67.169
382.25	68.969
382.61	67.257
382.98	65.953
383.34	67.906
383.71	67.462
384.07	72.542
384.44	76.072
384.80	74.365
385.17	66.208
385.53	73.312
385.90	65.551
386.26	72.611
386.63	69.326
386.99	67.644
387.36	65.756
387.72	63.096
388.08	66.532
388.45	72.932
388.81	64.299
389.18	71.988
389.54	65.242
389.91	73.173
390.27	63.031
390.63	66.728
391.00	64.706
391.36	70.108
391.73	66.196
392.09	70.303
392.46	64.533
392.82	66.049
393.18	70.747
393.55	68.911
393.91	63.797
394.27	70.175
394.64	69.056
395.00	66.406
395.37	67.873
395.73	68.352
396.09	64.858
396.46	69.002
396.82	66.902
397.18	68.140
397.55	67.388
397.91	70.008
398.27	66.774
398.64	67.089
399.00	68.606
399.36	69.347
399.73	67.978
400.09	66.977
400.45	72.578
400.82	67.195
401.18	66.824
401.54	69.535
401.91	67.703
402.27	71.516
402.63	68.328
403.00	64.710
403.36	68.958
403.72	64.911
404.08	67.393
404.45	73.077
404.81	69.944
405.17	68.884
405.54	68.602
405.90	70.253
406.26	67.387
406.62	71.851
406.99	72.813
407.35	73.279
407.71	72.597
408.07	66.451
408.44	72.959
408.80	71.382
409.16	68.863
409.52	72.303
409.88	70.075
410.25	72.111
410.61	73.804
410.97	67.766
411.33	67.452
411.70	73.123
412.06	72.688
412.42	73.691
412.78	72.021
413.14	72.404
413.51	72.342
413.87	73.600
414.23	72.820
414.59	72.913
414.95	74.913
415.31	71.793
415.68	75.708
416.04	79.664
416.40	74.063
416.76	69.427
417.12	72.014
417.48	76.169
417.84	75.933
418.21	73.629
418.57	80.669
418.93	75.963
419.29	73.105
419.65	75.418
420.01	75.119
420.37	78.677
420.73	73.915
421.10	76.962
421.46	79.065
421.82	79.763
422.18	75.596
422.54	76.826
422.90	77.343
423.26	76.847
423.62	76.839
423.98	74.241
424.34	75.557
424.70	79.879
425.06	80.493
425.43	77.150
425.79	80.185
426.15	76.143
426.51	78.417
426.87	80.489
427.23	79.318
427.59	81.661
427.95	78.341
428.31	83.032
428.67	80.216
429.03	77.656
429.39	79.606
429.75	82.741
430.11	82.787
430.47	79.771
430.83	83.885
431.19	80.769
431.55	81.098
431.91	80.088
432.27	85.402
432.63	83.532
432.99	86.556
433.35	80.506
433.71	78.915
434.07	83.085
434.43	81.040
434.79	83.160
435.15	83.165
435.51	84.956
435.87	84.795
436.23	85.054
436.59	84.406
436.95	86.452
437.30	81.345
437.66	83.584
438.02	86.684
438.38	83.303
438.74	83.647
439.10	85.430
439.46	85.053
439.82	86.945
440.18	90.028
440.54	88.989
440.90	86.627
441.25	84.618
441.61	85.829
441.97	86.177
442.33	87.671
442.69	87.076
443.05	87.699
443.41	86.313
443.77	86.799
444.12	84.370
444.48	88.720
444.84	88.587
445.20	86.316
445.56	89.525
445.92	88.289
446.28	87.223
446.63	89.451
446.99	89.157
447.35	87.464
447.71	88.536
448.07	92.456
448.43	88.060
448.78	89.237
449.14	89.561
449.50	88.759
449.86	90.177
450.22	89.879
450.57	88.677
450.93	91.528
451.29	91.218
451.65	91.985
452.00	86.449
452.36	90.475
452.72	89.466
453.08	90.320
453.44	91.695
453.79	89.054
454.15	88.515
454.51	89.798
454.87	91.458
455.22	90.526
455.58	91.614
455.94	94.212
456.29	93.845
456.65	93.452
457.01	90.307
457.37	92.104
457.72	91.245
458.08	94.543
458.44	91.684
458.79	90.281
459.15	91.911
459.51	93.117
459.87	92.383
460.22	91.800
460.58	90.996
460.94	91.837
461.29	93.463
461.65	91.434
462.01	89.500
462.36	92.539
462.72	92.365
463.08	92.818
463.43	91.302
463.79	93.586
464.15	91.349
464.50	91.141
464.86	92.260
465.21	94.055
465.57	92.172
465.93	92.520
466.28	93.526
466.64	91.276
467.00	92.375
467.35	95.986
467.71	93.864
468.06	91.609
468.42	92.995
468.78	92.560
469.13	93.318
469.49	92.690
469.84	94.282
470.20	91.591
470.55	93.736
470.91	91.310
471.27	94.002
471.62	94.473
471.98	92.242
472.33	92.423
472.69	93.444
473.04	92.051
473.40	93.383
473.75	92.945
474.11	93.723
474.46	91.953
474.82	93.530
475.18	95.062
475.53	94.135
475.89	95.971
476.24	94.520
476.60	93.042
476.95	91.215
477.31	93.655
477.66	92.782
478.02	94.796
478.37	92.332
478.73	94.922
479.08	91.191
479.43	94.086
479.79	94.074
480.14	90.882
480.50	92.980
480.85	92.815
481.21	93.125
481.56	93.147
481.92	93.586
482.27	94.028
482.63	94.159
482.98	93.724
483.33	92.370
483.69	91.370
484.04	94.958
484.40	93.457
484.75	92.047
485.10	93.306
485.46	91.780
485.81	94.160
486.17	93.018
486.52	94.452
486.87	95.230
487.23	94.885
487.58	96.304
487.94	93.347
488.29	93.204
488.64	92.196
489.00	93.191
489.35	94.510
489.70	91.754
490.06	94.092
490.41	93.569
490.76	92.271
491.12	92.842
491.47	94.475
491.83	93.673
492.18	93.367
492.53	93.938
492.88	93.220
493.24	94.957
493.59	91.148
493.94	92.514
494.30	93.041
494.65	95.341
495.00	93.388
495.36	93.864
495.71	93.586
496.06	94.812
496.41	95.092
496.77	93.723
497.12	92.879
497.47	93.268
497.83	93.721
498.18	94.190
498.53	94.069
498.88	93.242
499.24	93.685
499.59	93.849
499.94	93.624
500.29	93.533
500.65	96.034
501.00	93.963
501.35	93.900
501.70	94.678
502.05	94.278
502.41	93.238
502.76	93.009
503.11	93.713
503.46	93.297
503.81	92.879
504.17	93.376
504.52	94.932
504.87	94.128
505.22	93.710
505.57	95.262
505.93	94.158
506.28	93.295
506.63	92.796
506.98	93.650
507.33	94.766
507.68	93.768
508.03	93.944
508.39	94.361
508.74	92.258
509.09	93.787
509.44	94.989
509.79	96.066
510.14	94.639
510.49	93.597
510.84	94.957
511.20	93.937
511.55	93.671
511.90	94.076
512.25	93.888
512.60	93.981
512.95	92.979
513.30	95.936
513.65	92.917
514.00	94.647
514.35	93.531
514.70	94.353
515.06	95.750
515.41	93.005
515.76	94.743
516.11	94.606
516.46	95.312
516.81	92.790
517.16	92.561
517.51	93.905
517.86	95.370
518.21	94.228
518.56	95.034
518.91	95.619
519.26	93.969
519.61	94.616
519.96	94.545
520.31	94.114
520.66	94.167
521.01	93.553
521.36	94.301
521.71	94.301
522.06	94.421
522.41	94.647
522.76	93.714
523.11	94.334
523.46	93.661
523.81	95.059
524.16	95.632
524.51	92.408
524.86	93.343
525.21	93.024
525.56	94.623
525.91	95.088
526.25	94.268
526.60	94.462
526.95	94.422
527.30	94.419
527.65	94.771
528.00	94.849
528.35	95.511
528.70	93.801
529.05	93.889
529.40	93.974
529.75	95.362
530.09	93.687
530.44	94.996
530.79	93.011
531.14	94.137
531.49	95.396
531.84	94.694
532.19	95.079
532.54	93.547
532.88	94.892
533.23	95.064
533.58	95.017
533.93	95.824
534.28	95.368
534.63	94.391
534.97	96.046
535.32	94.873
535.67	95.622
536.02	94.847
536.37	95.614
536.71	94.329
537.06	95.083
537.41	96.692
537.76	95.946
538.11	93.772
538.45	95.705
538.80	95.370
539.15	94.501
539.50	93.279
539.85	93.600
540.19	94.726
540.54	95.386
540.89	94.467
541.24	93.791
541.58	94.578
541.93	94.878
542.28	95.214
542.63	94.458
542.97	94.251
543.32	93.988
543.67	94.507
544.02	95.305
544.36	94.992
544.71	94.582
545.06	94.401
545.40	95.451
545.75	96.167
546.10	94.861
546.44	94.589
546.79	94.685
547.14	95.231
547.48	94.228
547.83	93.800
548.18	95.856
548.52	95.187
548.87	94.478
549.22	94.323
549.56	94.911
549.91	94.933
550.26	94.982
550.60	94.140
550.95	95.496
551.30	95.192
551.64	94.730
551.99	94.240
552.34	96.036
552.68	94.464
553.03	95.599
553.37	94.942
553.72	95.254
554.07	94.508
554.41	94.359
554.76	95.724
555.10	94.948
555.45	94.907
555.80	95.938
556.14	95.893
556.49	94.617
556.83	95.058
557.18	95.236
557.52	95.331
557.87	94.506
558.21	95.189
558.56	95.153
558.91	94.433
559.25	95.761
559.60	95.061
559.94	95.509
560.29	95.949
560.63	94.551
560.98	95.891
561.32	94.132
561.67	94.733
562.01	94.653
562.36	95.665
562.70	95.233
563.05	95.392
563.39	93.409
563.74	95.853
564.08	94.781
564.43	96.165
564.77	95.032
565.11	95.359
565.46	94.806
565.80	95.805
566.15	95.471
566.49	94.377
566.84	95.347
567.18	95.077
567.53	95.184
567.87	94.992
568.21	95.088
568.56	94.756
568.90	94.869
569.25	95.614
569.59	95.611
569.94	95.775
570.28	95.924
570.62	96.309
570.97	95.333
571.31	95.032
571.65	96.675
572.00	94.561
572.34	95.962
572.69	95.505
573.03	95.878
573.37	96.279
573.72	96.327
574.06	95.981
574.40	95.218
574.75	95.049
575.09	95.524
575.43	95.580
575.78	96.041
576.12	95.723
576.46	95.294
576.81	95.774
577.15	96.209
577.49	96.715
577.84	95.865
578.18	95.225
578.52	96.907
578.86	96.229
579.21	96.217
579.55	95.774
579.89	96.249
580.24	95.607
580.58	97.326
580.92	96.746
581.26	96.113
581.61	95.945
581.95	97.014
582.29	95.642
582.63	96.892
582.98	97.066
583.32	96.078
583.66	96.000
584.00	96.857
584.35	95.800
584.69	96.679
585.03	96.565
585.37	95.888
585.71	96.692
586.06	95.751
586.40	95.317
586.74	95.660
587.08	95.756
587.42	95.730
587.77	96.349
588.11	96.041
588.45	96.102
588.79	95.172
589.13	95.138
589.47	96.203
589.81	95.944
590.16	96.364
590.50	95.673
590.84	95.131
591.18	94.696
591.52	95.864
591.86	95.418
592.20	96.132
592.55	96.217
592.89	95.851
593.23	95.590
593.57	96.634
593.91	95.396
594.25	95.962
594.59	96.448
594.93	96.055
595.27	95.498
595.61	95.765
595.95	95.994
596.30	96.010
596.64	96.293
596.98	95.582
597.32	96.229
597.66	96.080
598.00	95.340
598.34	96.593
598.68	95.890
599.02	96.520
599.36	95.631
599.70	96.287
600.04	95.763
600.38	95.915
600.72	95.322
601.06	95.647
601.40	96.696
601.74	96.236
602.08	95.134
602.42	96.230
602.76	95.844
603.10	95.904
603.44	95.450
603.78	95.498
604.12	96.621
604.46	94.818
604.80	95.758
605.14	95.620
605.48	96.288
605.82	96.258
606.16	95.252
606.50	95.749
606.84	95.518
607.17	96.182
607.51	94.662
607.85	96.630
608.19	95.256
608.53	94.862
608.87	97.190
609.21	95.684
609.55	96.343
609.89	95.642
610.23	95.682
610.56	95.083
610.90	95.828
611.24	96.075
611.58	95.399
611.92	96.045
612.26	96.125
612.60	96.555
612.94	95.955
613.27	95.562
613.61	95.370
613.95	96.655
614.29	95.623
614.63	95.954
614.97	96.676
615.30	96.790
615.64	96.361
615.98	95.005
616.32	96.605
616.66	95.716
616.99	95.160
617.33	96.360
617.67	95.559
618.01	96.328
618.35	95.680
618.68	95.454
619.02	95.397
619.36	96.012
619.70	96.252
620.03	95.522
620.37	96.109
620.71	95.669
621.05	96.418
621.38	95.751
621.72	95.667
622.06	96.870
622.40	95.788
622.73	96.377
623.07	95.229
623.41	96.035
623.75	95.783
624.08	97.000
624.42	95.683
624.76	97.122
625.09	96.469
625.43	95.907
625.77	96.411
626.10	96.536
626.44	96.348
626.78	96.751
627.11	95.896
627.45	96.661
627.79	96.319
628.12	96.701
628.46	95.894
628.80	95.616
629.13	95.531
629.47	95.783
629.81	97.129
630.14	96.010
630.48	95.747
630.81	95.874
631.15	96.311
631.49	95.466
631.82	95.706
632.16	96.445
632.49	96.355
632.83	95.970
633.17	96.808
633.50	96.563
633.84	96.247
634.17	96.393
634.51	95.631
634.84	96.223
635.18	96.398
635.52	96.052
635.85	95.646
636.19	95.033
636.52	94.894
636.86	96.378
637.19	96.797
637.53	97.519
637.86	96.342
638.20	94.517
638.53	95.634
638.87	96.131
639.20	95.333
639.54	96.130
639.87	95.642
640.21	96.850
640.54	95.160
640.88	96.496
641.21	95.854
641.55	94.387
641.88	95.657
642.22	97.565
642.55	95.711
642.89	95.903
643.22	96.867
643.56	96.995
643.89	94.547
644.22	95.254
644.56	96.112
644.89	95.329
645.23	95.780
645.56	95.611
645.90	94.777
646.23	95.981
646.56	95.722
646.90	95.529
647.23	95.963
647.57	95.539
647.90	96.242
648.23	96.068
648.57	95.184
648.90	95.679
649.23	96.536
649.57	95.622
649.90	95.240
650.24	95.798
650.57	95.658
650.90	95.350
651.24	95.473
651.57	96.036
651.90	95.693
652.24	96.159
652.57	96.592
652.90	96.163
653.23	95.663
653.57	95.262
653.90	95.946
654.23	95.853
654.57	95.438
654.90	96.779
655.23	97.751
655.57	97.679
655.90	97.996
